# I[A]    B[mT]
1.0     62.6
2.0     125.2
2.5     153.7
3.0     182.3
4.0     245.2
5.0     298.8
6.0     370.7
7.0     432.7
7.5     457.8
8.0     495.8
9.0     552.0
10.0    604.0
11.0    679.0
12.0    732.5
12.5    748.8
13.0    791.0
14.0    844.5
15.0    883.0
16.0    934.2
17.5    985.0

